file name:  S2128_09_1_2_MPa_PXF440_220809_360.mat	date/time  02.09.22 14.37
sensor type:  s2128_09_1_2_mpa_pxf440_220809 
force time integral[N*s]:       917.610
pressure time integral [kPa*s]:      901.950
total time [secs]:  7.450	time per frame [secs]:  0.01000	scanning rate [Hz]:   100


time[secs]    	force[N]   	x[mm]     	y[mm] 	

     0.01000	  137.500	 55.36	145.00	
     0.02000	  137.500	 55.36	145.00	
     0.03000	  138.000	 55.18	145.00	
     0.04000	  138.000	 55.25	145.00	
     0.05000	  138.000	 55.18	145.00	
     0.06000	  138.000	 55.18	145.00	
     0.07000	  137.500	 55.36	145.00	
     0.08000	  138.000	 55.36	145.00	
     0.09000	  138.500	 55.18	145.00	
     0.10000	  137.500	 55.22	145.00	
     0.11000	  138.500	 55.18	145.00	
     0.12000	  138.500	 55.25	145.00	
     0.13000	  138.000	 55.18	145.00	
     0.14000	  138.000	 55.18	145.00	
     0.15000	  138.000	 55.25	145.00	
     0.16000	  137.500	 55.36	145.00	
     0.17000	  138.500	 55.18	145.00	
     0.18000	  137.500	 55.36	145.00	
     0.19000	  138.000	 55.25	145.00	
     0.20000	  138.000	 55.25	145.00	
     0.21000	  137.500	 55.36	145.00	
     0.22000	  138.000	 55.25	145.00	
     0.23000	  138.000	 55.36	145.00	
     0.24000	  137.500	 55.36	145.00	
     0.25000	  137.500	 55.36	145.00	
     0.26000	  138.000	 55.36	145.00	
     0.27000	  138.500	 55.18	145.00	
     0.28000	  137.500	 55.36	145.00	
     0.29000	  138.000	 55.18	145.00	
     0.30000	  138.000	 55.36	145.00	
     0.31000	  138.500	 55.25	145.00	
     0.32000	  138.500	 55.18	145.00	
     0.33000	  137.500	 55.36	145.00	
     0.34000	  137.500	 55.36	145.00	
     0.35000	  139.000	 55.07	145.00	
     0.36000	  137.500	 55.36	145.00	
     0.37000	  139.000	 55.07	145.00	
     0.38000	  137.500	 55.36	145.00	
     0.39000	  138.500	 55.25	145.00	
     0.40000	  138.000	 55.36	145.00	
     0.41000	  138.000	 55.25	145.00	
     0.42000	  138.000	 55.36	145.00	
     0.43000	  138.000	 55.36	145.00	
     0.44000	  138.000	 55.18	145.00	
     0.45000	  137.500	 55.36	145.00	
     0.46000	  138.500	 55.18	145.00	
     0.47000	  138.000	 55.18	145.00	
     0.48000	  137.500	 55.36	145.00	
     0.49000	  137.500	 55.22	145.00	
     0.50000	  138.000	 55.25	145.00	
     0.51000	  138.000	 55.36	145.00	
     0.52000	  137.500	 55.36	145.00	
     0.53000	  137.500	 55.22	145.00	
     0.54000	  137.500	 55.36	145.00	
     0.55000	  138.500	 55.18	145.00	
     0.56000	  138.500	 55.18	145.00	
     0.57000	  138.000	 55.25	145.00	
     0.58000	  138.000	 55.18	145.00	
     0.59000	  137.500	 55.36	145.00	
     0.60000	  137.500	 55.36	145.00	
     0.61000	  138.500	 55.18	145.00	
     0.62000	  138.500	 55.25	145.00	
     0.63000	  138.000	 55.04	145.00	
     0.64000	  137.500	 55.36	145.00	
     0.65000	  138.000	 55.36	145.00	
     0.66000	  138.000	 55.36	145.00	
     0.67000	  137.500	 55.36	145.00	
     0.68000	  138.000	 55.25	145.00	
     0.69000	  138.500	 55.25	145.00	
     0.70000	  137.500	 55.36	145.00	
     0.71000	  138.000	 55.36	145.00	
     0.72000	  138.000	 55.36	145.00	
     0.73000	  138.500	 55.18	145.00	
     0.74000	  138.500	 55.25	145.00	
     0.75000	  138.500	 55.25	145.00	
     0.76000	  138.000	 55.25	145.00	
     0.77000	  138.000	 55.18	145.00	
     0.78000	  138.000	 55.36	145.00	
     0.79000	  137.500	 55.36	145.00	
     0.80000	  138.000	 55.36	145.00	
     0.81000	  138.000	 55.18	145.00	
     0.82000	  138.000	 55.18	145.00	
     0.83000	  138.000	 55.36	145.00	
     0.84000	  137.500	 55.36	145.00	
     0.85000	  137.500	 55.11	145.00	
     0.86000	  138.000	 55.18	145.00	
     0.87000	  137.500	 55.36	145.00	
     0.88000	  137.500	 55.36	145.00	
     0.89000	  138.000	 55.25	145.00	
     0.90000	  138.500	 55.25	145.00	
     0.91000	  138.500	 55.18	145.00	
     0.92000	  137.500	 55.36	145.00	
     0.93000	  138.500	 55.18	145.00	
     0.94000	  138.000	 55.18	145.00	
     0.95000	  138.000	 55.36	145.00	
     0.96000	  138.500	 55.25	145.00	
     0.97000	  138.500	 55.18	145.00	
     0.98000	  138.000	 55.43	145.00	
     0.99000	  138.500	 55.07	145.00	
     1.00000	  138.500	 55.07	145.00	
     1.01000	  137.500	 55.36	145.00	
     1.02000	  137.500	 55.36	145.00	
     1.03000	  137.500	 55.36	145.00	
     1.04000	  137.500	 55.36	145.00	
     1.05000	  138.000	 55.36	145.00	
     1.06000	  138.000	 55.25	145.00	
     1.07000	  138.000	 55.36	145.00	
     1.08000	  138.000	 55.25	145.00	
     1.09000	  138.000	 55.36	145.00	
     1.10000	  138.000	 55.36	145.00	
     1.11000	  137.500	 55.36	145.00	
     1.12000	  138.000	 55.25	145.00	
     1.13000	  138.000	 55.25	145.00	
     1.14000	  138.000	 55.36	145.00	
     1.15000	  138.000	 55.18	145.00	
     1.16000	  137.500	 55.36	145.00	
     1.17000	  138.000	 55.36	145.00	
     1.18000	  138.000	 55.36	145.00	
     1.19000	  138.500	 55.18	145.00	
     1.20000	  138.000	 55.36	145.00	
     1.21000	  138.000	 55.36	145.00	
     1.22000	  138.000	 55.25	145.00	
     1.23000	  138.000	 55.18	145.00	
     1.24000	  138.000	 55.18	145.00	
     1.25000	  137.500	 55.36	145.00	
     1.26000	  138.000	 55.18	145.00	
     1.27000	  138.000	 55.36	145.00	
     1.28000	  137.500	 55.22	145.00	
     1.29000	  137.500	 55.36	145.00	
     1.30000	  137.500	 55.36	145.00	
     1.31000	  137.500	 55.36	145.00	
     1.32000	  137.000	 55.22	145.00	
     1.33000	  138.500	 55.43	145.00	
     1.34000	  137.500	 55.36	145.00	
     1.35000	  137.500	 55.36	145.00	
     1.36000	  138.500	 55.18	145.00	
     1.37000	  137.500	 55.36	145.00	
     1.38000	  138.000	 55.25	145.00	
     1.39000	  137.500	 55.36	145.00	
     1.40000	  138.500	 55.25	145.00	
     1.41000	  138.000	 55.18	145.00	
     1.42000	  137.500	 55.36	145.00	
     1.43000	  138.500	 55.18	145.00	
     1.44000	  137.500	 55.36	145.00	
     1.45000	  138.000	 55.36	145.00	
     1.46000	  139.000	 55.07	145.00	
     1.47000	  138.500	 55.18	145.00	
     1.48000	  137.500	 55.36	145.00	
     1.49000	  138.500	 55.07	145.00	
     1.50000	  139.000	 55.07	145.00	
     1.51000	  138.500	 55.07	145.00	
     1.52000	  138.500	 55.25	145.00	
     1.53000	  137.500	 55.36	145.00	
     1.54000	  137.000	 55.22	145.00	
     1.55000	  137.500	 55.36	145.00	
     1.56000	  137.000	 55.22	145.00	
     1.57000	  138.500	 55.18	145.00	
     1.58000	  138.000	 55.18	145.00	
     1.59000	  138.000	 55.25	145.00	
     1.60000	  137.500	 55.36	145.00	
     1.61000	  138.000	 54.93	145.00	
     1.62000	  137.500	 55.25	145.00	
     1.63000	  138.000	 55.18	145.00	
     1.64000	  138.000	 55.36	145.00	
     1.65000	  138.000	 55.36	145.00	
     1.66000	  137.500	 55.36	145.00	
     1.67000	  138.500	 55.18	145.00	
     1.68000	  139.000	 55.07	145.00	
     1.69000	  137.500	 55.36	145.00	
     1.70000	  138.000	 55.18	145.00	
     1.71000	  138.500	 55.18	145.00	
     1.72000	  138.000	 55.36	145.00	
     1.73000	  138.500	 55.18	145.00	
     1.74000	  138.500	 55.25	145.00	
     1.75000	  138.000	 55.36	145.00	
     1.76000	  137.500	 55.04	145.00	
     1.77000	  138.000	 55.36	145.00	
     1.78000	  137.500	 55.36	145.00	
     1.79000	  137.500	 55.36	145.00	
     1.80000	  138.000	 55.36	145.00	
     1.81000	  138.500	 55.18	145.00	
     1.82000	  138.000	 55.36	145.00	
     1.83000	  137.500	 55.36	145.00	
     1.84000	  138.000	 55.36	145.00	
     1.85000	  138.500	 55.25	145.00	
     1.86000	  138.000	 55.36	145.00	
     1.87000	  138.000	 55.36	145.00	
     1.88000	  138.500	 55.18	145.00	
     1.89000	  137.500	 55.36	145.00	
     1.90000	  138.000	 55.36	145.00	
     1.91000	  138.500	 55.25	145.00	
     1.92000	  137.500	 55.36	145.00	
     1.93000	  138.000	 55.18	145.00	
     1.94000	  137.500	 55.36	145.00	
     1.95000	  137.500	 55.36	145.00	
     1.96000	  137.500	 55.36	145.00	
     1.97000	  137.500	 55.22	145.00	
     1.98000	  138.500	 55.18	145.00	
     1.99000	  138.500	 55.25	145.00	
     2.00000	  138.000	 55.18	145.00	
     2.01000	  137.500	 55.36	145.00	
     2.02000	  138.500	 55.25	145.00	
     2.03000	  138.000	 55.25	145.00	
     2.04000	  138.000	 55.36	145.00	
     2.05000	  138.000	 55.36	145.00	
     2.06000	  138.000	 55.36	145.00	
     2.07000	  138.000	 55.36	145.00	
     2.08000	  138.500	 55.18	145.00	
     2.09000	  137.500	 55.36	145.00	
     2.10000	  138.000	 55.36	145.00	
     2.11000	  138.000	 55.36	145.00	
     2.12000	  138.000	 55.18	145.00	
     2.13000	  137.500	 55.36	145.00	
     2.14000	  138.000	 55.18	145.00	
     2.15000	  137.500	 55.36	145.00	
     2.16000	  137.500	 55.36	145.00	
     2.17000	  138.000	 55.18	145.00	
     2.18000	  138.000	 55.36	145.00	
     2.19000	  138.000	 55.25	145.00	
     2.20000	  138.000	 55.36	145.00	
     2.21000	  137.500	 55.36	145.00	
     2.22000	  137.500	 55.36	145.00	
     2.23000	  138.000	 55.04	145.00	
     2.24000	  137.500	 55.36	145.00	
     2.25000	  137.500	 55.36	145.00	
     2.26000	  138.000	 55.36	145.00	
     2.27000	  138.000	 55.29	145.00	
     2.28000	  138.000	 55.36	145.00	
     2.29000	  137.500	 55.36	145.00	
     2.30000	  137.500	 55.36	145.00	
     2.31000	  137.500	 55.36	145.00	
     2.32000	  138.500	 55.25	145.00	
     2.33000	  138.000	 55.18	145.00	
     2.34000	  138.500	 55.18	145.00	
     2.35000	  138.000	 55.36	145.00	
     2.36000	  138.000	 55.18	145.00	
     2.37000	  138.000	 55.25	145.00	
     2.38000	  137.500	 55.36	145.00	
     2.39000	  138.500	 55.18	145.00	
     2.40000	  138.000	 55.25	145.00	
     2.41000	  138.500	 55.18	145.00	
     2.42000	  138.000	 54.96	145.00	
     2.43000	  137.500	 55.22	145.00	
     2.44000	  138.000	 55.36	145.00	
     2.45000	  139.000	 55.07	145.00	
     2.46000	  138.500	 55.25	145.00	
     2.47000	  138.500	 55.18	145.00	
     2.48000	  137.500	 55.36	145.00	
     2.49000	  138.000	 55.36	145.00	
     2.50000	  138.500	 55.18	145.00	
     2.51000	  138.500	 55.43	145.00	
     2.52000	  138.500	 55.18	145.00	
     2.53000	  138.000	 55.36	145.00	
     2.54000	  138.500	 55.18	145.00	
     2.55000	  137.500	 55.36	145.00	
     2.56000	  138.000	 55.18	145.00	
     2.57000	  138.500	 55.18	145.00	
     2.58000	  138.500	 55.07	145.00	
     2.59000	  137.500	 55.22	145.00	
     2.60000	  138.000	 55.36	145.00	
     2.61000	  138.000	 55.18	145.00	
     2.62000	  139.000	 55.07	145.00	
     2.63000	  138.000	 55.36	145.00	
     2.64000	  138.000	 55.18	145.00	
     2.65000	  138.500	 55.18	145.00	
     2.66000	  137.500	 55.36	145.00	
     2.67000	  138.000	 55.36	145.00	
     2.68000	  138.500	 55.25	145.00	
     2.69000	  137.500	 55.04	145.00	
     2.70000	  137.000	 55.22	145.00	
     2.71000	  138.500	 55.25	145.00	
     2.72000	  137.500	 55.36	145.00	
     2.73000	  138.500	 55.18	145.00	
     2.74000	  137.500	 55.36	145.00	
     2.75000	  138.500	 55.18	145.00	
     2.76000	  137.500	 55.36	145.00	
     2.77000	  138.000	 55.25	145.00	
     2.78000	  138.000	 55.18	145.00	
     2.79000	  138.000	 55.36	145.00	
     2.80000	  138.000	 55.18	145.00	
     2.81000	  137.500	 55.36	145.00	
     2.82000	  137.500	 55.25	145.00	
     2.83000	  137.500	 55.36	145.00	
     2.84000	  138.500	 55.25	145.00	
     2.85000	  138.000	 55.36	145.00	
     2.86000	  138.000	 55.36	145.00	
     2.87000	  137.500	 55.22	145.00	
     2.88000	  138.000	 55.18	145.00	
     2.89000	  138.500	 55.25	145.00	
     2.90000	  138.000	 55.36	145.00	
     2.91000	  137.500	 55.36	145.00	
     2.92000	  138.000	 55.36	145.00	
     2.93000	  137.500	 55.36	145.00	
     2.94000	  138.500	 55.18	145.00	
     2.95000	  138.500	 55.18	145.00	
     2.96000	  138.000	 55.36	145.00	
     2.97000	  138.500	 55.18	145.00	
     2.98000	  138.000	 55.04	145.00	
     2.99000	  137.500	 55.36	145.00	
     3.00000	  137.500	 55.36	145.00	
     3.01000	  137.500	 55.22	145.00	
     3.02000	  138.500	 55.25	145.00	
     3.03000	  137.500	 55.36	145.00	
     3.04000	  138.000	 55.18	145.00	
     3.05000	  138.000	 55.18	145.00	
     3.06000	  138.000	 55.36	145.00	
     3.07000	  137.500	 55.22	145.00	
     3.08000	  138.000	 55.18	145.00	
     3.09000	  138.000	 55.36	145.00	
     3.10000	  138.000	 55.36	145.00	
     3.11000	  137.500	 55.36	145.00	
     3.12000	  137.500	 55.36	145.00	
     3.13000	  138.000	 55.11	145.00	
     3.14000	  137.500	 55.36	145.00	
     3.15000	  138.000	 55.36	145.00	
     3.16000	  137.500	 55.36	145.00	
     3.17000	  138.000	 55.36	145.00	
     3.18000	  137.500	 55.36	145.00	
     3.19000	  138.000	 55.25	145.00	
     3.20000	  138.000	 55.18	145.00	
     3.21000	  138.000	 55.36	145.00	
     3.22000	  137.500	 55.36	145.00	
     3.23000	  138.500	 55.07	145.00	
     3.24000	  138.500	 55.18	145.00	
     3.25000	  137.500	 55.36	145.00	
     3.26000	  137.500	 55.36	145.00	
     3.27000	  137.500	 55.04	145.00	
     3.28000	  138.000	 55.36	145.00	
     3.29000	  138.500	 55.18	145.00	
     3.30000	  138.500	 55.25	145.00	
     3.31000	  138.000	 55.36	145.00	
     3.32000	  138.000	 55.36	145.00	
     3.33000	  138.500	 55.25	145.00	
     3.34000	  138.500	 55.18	145.00	
     3.35000	  138.500	 55.18	145.00	
     3.36000	  138.000	 55.25	145.00	
     3.37000	  138.500	 55.18	145.00	
     3.38000	  138.500	 55.25	145.00	
     3.39000	  137.500	 55.36	145.00	
     3.40000	  138.000	 55.18	145.00	
     3.41000	  138.000	 55.36	145.00	
     3.42000	  139.000	 55.07	145.00	
     3.43000	  138.500	 55.07	145.00	
     3.44000	  138.500	 55.25	145.00	
     3.45000	  138.000	 55.36	145.00	
     3.46000	  137.500	 55.36	145.00	
     3.47000	  137.500	 55.36	145.00	
     3.48000	  137.500	 55.36	145.00	
     3.49000	  138.500	 55.25	145.00	
     3.50000	  138.000	 55.36	145.00	
     3.51000	  137.500	 55.36	145.00	
     3.52000	  137.500	 55.36	145.00	
     3.53000	  138.000	 55.36	145.00	
     3.54000	  138.000	 55.36	145.00	
     3.55000	  137.500	 55.36	145.00	
     3.56000	  137.500	 55.36	145.00	
     3.57000	  138.000	 55.25	145.00	
     3.58000	  138.500	 55.25	145.00	
     3.59000	  137.500	 55.36	145.00	
     3.60000	  138.500	 55.07	145.00	
     3.61000	  137.500	 55.36	145.00	
     3.62000	  138.500	 55.25	145.00	
     3.63000	  137.500	 55.36	145.00	
     3.64000	  137.500	 55.36	145.00	
     3.65000	  138.000	 55.36	145.00	
     3.66000	  138.000	 55.36	145.00	
     3.67000	  138.000	 55.25	145.00	
     3.68000	  138.000	 55.36	145.00	
     3.69000	  137.500	 55.36	145.00	
     3.70000	  137.500	 55.36	145.00	
     3.71000	  138.000	 55.36	145.00	
     3.72000	  137.500	 55.36	145.00	
     3.73000	  137.500	 55.36	145.00	
     3.74000	  137.500	 55.36	145.00	
     3.75000	  138.000	 55.36	145.00	
     3.76000	  137.500	 55.36	145.00	
     3.77000	  137.500	 55.36	145.00	
     3.78000	  138.000	 55.36	145.00	
     3.79000	  138.000	 55.36	145.00	
     3.80000	  137.500	 55.22	145.00	
     3.81000	  137.500	 55.36	145.00	
     3.82000	  138.000	 55.25	145.00	
     3.83000	  137.500	 55.36	145.00	
     3.84000	  137.500	 55.22	145.00	
     3.85000	  138.500	 55.18	145.00	
     3.86000	  138.500	 55.25	145.00	
     3.87000	  138.000	 55.18	145.00	
     3.88000	  137.500	 55.22	145.00	
     3.89000	  138.000	 55.18	145.00	
     3.90000	  138.000	 55.25	145.00	
     3.91000	  138.000	 55.36	145.00	
     3.92000	  138.500	 55.25	145.00	
     3.93000	  137.500	 55.36	145.00	
     3.94000	  138.000	 55.36	145.00	
     3.95000	  137.500	 55.36	145.00	
     3.96000	  137.500	 55.36	145.00	
     3.97000	  137.500	 55.36	145.00	
     3.98000	  138.500	 55.18	145.00	
     3.99000	  137.500	 55.36	145.00	
     4.00000	  138.000	 55.25	145.00	
     4.01000	  138.000	 55.36	145.00	
     4.02000	  137.500	 55.36	145.00	
     4.03000	  137.500	 55.36	145.00	
     4.04000	  137.500	 55.36	145.00	
     4.05000	  138.000	 55.36	145.00	
     4.06000	  137.500	 55.36	145.00	
     4.07000	  138.000	 55.36	145.00	
     4.08000	  138.000	 55.36	145.00	
     4.09000	  137.500	 55.36	145.00	
     4.10000	  137.500	 55.22	145.00	
     4.11000	  137.000	 55.22	145.00	
     4.12000	  137.500	 55.36	145.00	
     4.13000	  138.000	 55.36	145.00	
     4.14000	  138.000	 55.36	145.00	
     4.15000	  137.000	 55.26	145.00	
     4.16000	  137.500	 55.36	145.00	
     4.17000	  137.000	 55.22	145.00	
     4.18000	  137.500	 55.36	145.00	
     4.19000	  138.000	 55.18	145.00	
     4.20000	  137.000	 55.22	145.00	
     4.21000	  137.500	 55.22	145.00	
     4.22000	  137.000	 55.22	145.00	
     4.23000	  137.000	 55.22	145.00	
     4.24000	  137.500	 55.36	145.00	
     4.25000	  137.000	 55.26	145.00	
     4.26000	  137.500	 55.36	145.00	
     4.27000	  137.500	 55.36	145.00	
     4.28000	  137.000	 55.26	145.00	
     4.29000	  137.500	 55.36	145.00	
     4.30000	  138.000	 55.36	145.00	
     4.31000	  137.500	 55.36	145.00	
     4.32000	  137.000	 55.22	145.00	
     4.33000	  137.000	 55.22	145.00	
     4.34000	  136.500	 55.11	145.00	
     4.35000	  137.500	 55.36	145.00	
     4.36000	  137.500	 55.22	145.00	
     4.37000	  137.000	 55.22	145.00	
     4.38000	  137.000	 54.93	145.00	
     4.39000	  137.000	 55.22	145.00	
     4.40000	  137.000	 55.22	145.00	
     4.41000	  137.000	 55.26	145.00	
     4.42000	  137.500	 55.36	145.00	
     4.43000	  136.500	 55.11	145.00	
     4.44000	  137.500	 55.25	145.00	
     4.45000	  137.500	 55.11	145.00	
     4.46000	  137.000	 55.00	145.00	
     4.47000	  137.500	 55.25	145.00	
     4.48000	  136.500	 55.11	145.00	
     4.49000	  132.000	 55.04	145.00	
     4.50000	    8.500	 35.00	145.00	
     4.51000	    0.000	  0.00	  0.00	
     4.52000	    0.000	  0.00	  0.00	
     4.53000	    0.000	  0.00	  0.00	
     4.54000	    0.000	  0.00	  0.00	
     4.55000	    0.000	  0.00	  0.00	
     4.56000	    0.000	  0.00	  0.00	
     4.57000	    0.000	  0.00	  0.00	
     4.58000	    0.000	  0.00	  0.00	
     4.59000	    0.000	  0.00	  0.00	
     4.60000	    0.000	  0.00	  0.00	
     4.61000	    0.000	  0.00	  0.00	
     4.62000	    0.000	  0.00	  0.00	
     4.63000	    0.000	  0.00	  0.00	
     4.64000	    0.000	  0.00	  0.00	
     4.65000	    0.000	  0.00	  0.00	
     4.66000	    0.000	  0.00	  0.00	
     4.67000	    0.000	  0.00	  0.00	
     4.68000	    0.000	  0.00	  0.00	
     4.69000	    0.000	  0.00	  0.00	
     4.70000	    0.000	  0.00	  0.00	
     4.71000	    0.000	  0.00	  0.00	
     4.72000	    0.000	  0.00	  0.00	
     4.73000	    0.000	  0.00	  0.00	
     4.74000	    0.000	  0.00	  0.00	
     4.75000	    0.000	  0.00	  0.00	
     4.76000	    0.000	  0.00	  0.00	
     4.77000	    0.000	  0.00	  0.00	
     4.78000	    0.000	  0.00	  0.00	
     4.79000	    0.000	  0.00	  0.00	
     4.80000	  104.000	 58.17	145.00	
     4.81000	  125.000	 55.08	145.00	
     4.82000	  134.000	 55.22	145.00	
     4.83000	  137.000	 55.22	145.00	
     4.84000	  136.500	 55.11	145.00	
     4.85000	  137.500	 55.36	145.00	
     4.86000	  137.000	 55.22	145.00	
     4.87000	  137.500	 55.22	145.00	
     4.88000	  137.000	 55.22	145.00	
     4.89000	  137.000	 55.22	145.00	
     4.90000	  137.000	 55.22	145.00	
     4.91000	  137.500	 55.36	145.00	
     4.92000	  137.000	 55.22	145.00	
     4.93000	  137.500	 55.36	145.00	
     4.94000	  137.000	 55.22	145.00	
     4.95000	  137.500	 55.25	145.00	
     4.96000	  137.000	 55.26	145.00	
     4.97000	  137.000	 55.26	145.00	
     4.98000	  137.000	 55.22	145.00	
     4.99000	  138.500	 55.25	145.00	
     5.00000	  138.500	 55.18	145.00	
     5.01000	  138.000	 55.18	145.00	
     5.02000	  138.500	 55.07	145.00	
     5.03000	  138.500	 55.07	145.00	
     5.04000	  138.000	 55.18	145.00	
     5.05000	  139.000	 55.07	145.00	
     5.06000	  137.500	 55.11	145.00	
     5.07000	  138.500	 55.18	145.00	
     5.08000	  138.500	 54.96	145.00	
     5.09000	  138.000	 55.14	145.00	
     5.10000	  139.000	 55.07	145.00	
     5.11000	  139.000	 55.07	145.00	
     5.12000	  139.000	 55.07	145.00	
     5.13000	  139.000	 55.07	145.00	
     5.14000	  139.000	 55.07	145.00	
     5.15000	  139.000	 55.07	145.00	
     5.16000	  140.000	 55.00	145.00	
     5.17000	  139.500	 54.93	145.00	
