file name:  S2128_09_1_2_MPa_PXF440_220809_423.mat	date/time  03.09.22 16.05
sensor type:  s2128_09_1_2_mpa_pxf440_220809 
force time integral[N*s]:       332.135
pressure time integral [kPa*s]:      396.000
total time [secs]:  18.540	time per frame [secs]:  0.01000	scanning rate [Hz]:   100


time[secs]    	force[N]   	x[mm]     	y[mm] 	

     0.01000	    0.000	  0.00	  0.00	
     0.02000	    0.000	  0.00	  0.00	
     0.03000	    0.000	  0.00	  0.00	
     0.04000	    0.000	  0.00	  0.00	
     0.05000	    0.000	  0.00	  0.00	
     0.06000	    0.000	  0.00	  0.00	
     0.07000	    0.000	  0.00	  0.00	
     0.08000	    0.000	  0.00	  0.00	
     0.09000	    0.000	  0.00	  0.00	
     0.10000	    0.000	  0.00	  0.00	
     0.11000	    0.000	  0.00	  0.00	
     0.12000	    0.000	  0.00	  0.00	
     0.13000	    0.000	  0.00	  0.00	
     0.14000	    0.000	  0.00	  0.00	
     0.15000	    0.000	  0.00	  0.00	
     0.16000	    0.000	  0.00	  0.00	
     0.17000	    0.000	  0.00	  0.00	
     0.18000	    0.000	  0.00	  0.00	
     0.19000	    0.000	  0.00	  0.00	
     0.20000	    0.000	  0.00	  0.00	
     0.21000	    0.000	  0.00	  0.00	
     0.22000	    0.000	  0.00	  0.00	
     0.23000	    0.000	  0.00	  0.00	
     0.24000	    0.000	  0.00	  0.00	
     0.25000	    0.000	  0.00	  0.00	
     0.26000	    0.000	  0.00	  0.00	
     0.27000	    0.000	  0.00	  0.00	
     0.28000	    0.000	  0.00	  0.00	
     0.29000	    0.000	  0.00	  0.00	
     0.30000	    0.000	  0.00	  0.00	
     0.31000	    0.000	  0.00	  0.00	
     0.32000	    0.000	  0.00	  0.00	
     0.33000	    0.000	  0.00	  0.00	
     0.34000	    0.000	  0.00	  0.00	
     0.35000	    0.000	  0.00	  0.00	
     0.36000	    0.000	  0.00	  0.00	
     0.37000	    0.000	  0.00	  0.00	
     0.38000	    0.000	  0.00	  0.00	
     0.39000	    0.000	  0.00	  0.00	
     0.40000	    0.000	  0.00	  0.00	
     0.41000	    0.000	  0.00	  0.00	
     0.42000	    0.000	  0.00	  0.00	
     0.43000	    0.000	  0.00	  0.00	
     0.44000	    0.000	  0.00	  0.00	
     0.45000	    0.000	  0.00	  0.00	
     0.46000	    0.000	  0.00	  0.00	
     0.47000	    0.000	  0.00	  0.00	
     0.48000	    0.000	  0.00	  0.00	
     0.49000	    0.000	  0.00	  0.00	
     0.50000	    0.000	  0.00	  0.00	
     0.51000	    0.000	  0.00	  0.00	
     0.52000	    0.000	  0.00	  0.00	
     0.53000	    0.000	  0.00	  0.00	
     0.54000	    0.000	  0.00	  0.00	
     0.55000	    0.000	  0.00	  0.00	
     0.56000	    0.000	  0.00	  0.00	
     0.57000	    0.000	  0.00	  0.00	
     0.58000	    0.000	  0.00	  0.00	
     0.59000	    0.000	  0.00	  0.00	
     0.60000	    0.000	  0.00	  0.00	
     0.61000	    0.000	  0.00	  0.00	
     0.62000	    0.000	  0.00	  0.00	
     0.63000	    0.000	  0.00	  0.00	
     0.64000	    0.000	  0.00	  0.00	
     0.65000	    0.000	  0.00	  0.00	
     0.66000	    0.000	  0.00	  0.00	
     0.67000	    0.000	  0.00	  0.00	
     0.68000	    0.000	  0.00	  0.00	
     0.69000	    0.000	  0.00	  0.00	
     0.70000	    0.000	  0.00	  0.00	
     0.71000	    0.000	  0.00	  0.00	
     0.72000	    0.000	  0.00	  0.00	
     0.73000	    0.000	  0.00	  0.00	
     0.74000	    0.000	  0.00	  0.00	
     0.75000	    0.000	  0.00	  0.00	
     0.76000	    0.000	  0.00	  0.00	
     0.77000	    0.000	  0.00	  0.00	
     0.78000	    0.000	  0.00	  0.00	
     0.79000	    0.000	  0.00	  0.00	
     0.80000	    0.000	  0.00	  0.00	
     0.81000	    0.000	  0.00	  0.00	
     0.82000	    0.000	  0.00	  0.00	
     0.83000	    0.000	  0.00	  0.00	
     0.84000	    0.000	  0.00	  0.00	
     0.85000	    0.000	  0.00	  0.00	
     0.86000	    0.000	  0.00	  0.00	
     0.87000	    0.000	  0.00	  0.00	
     0.88000	    0.000	  0.00	  0.00	
     0.89000	    0.000	  0.00	  0.00	
     0.90000	    0.000	  0.00	  0.00	
     0.91000	    0.000	  0.00	  0.00	
     0.92000	    0.000	  0.00	  0.00	
     0.93000	    0.000	  0.00	  0.00	
     0.94000	    0.000	  0.00	  0.00	
     0.95000	    0.000	  0.00	  0.00	
     0.96000	    0.000	  0.00	  0.00	
     0.97000	    0.000	  0.00	  0.00	
     0.98000	    0.000	  0.00	  0.00	
     0.99000	    0.000	  0.00	  0.00	
     1.00000	    0.000	  0.00	  0.00	
     1.01000	    0.000	  0.00	  0.00	
     1.02000	    0.000	  0.00	  0.00	
     1.03000	    0.000	  0.00	  0.00	
     1.04000	    0.000	  0.00	  0.00	
     1.05000	    0.000	  0.00	  0.00	
     1.06000	    0.000	  0.00	  0.00	
     1.07000	    0.000	  0.00	  0.00	
     1.08000	    0.000	  0.00	  0.00	
     1.09000	    0.000	  0.00	  0.00	
     1.10000	    0.000	  0.00	  0.00	
     1.11000	    0.000	  0.00	  0.00	
     1.12000	    0.000	  0.00	  0.00	
     1.13000	    0.000	  0.00	  0.00	
     1.14000	    0.000	  0.00	  0.00	
     1.15000	    0.000	  0.00	  0.00	
     1.16000	    0.000	  0.00	  0.00	
     1.17000	    0.000	  0.00	  0.00	
     1.18000	    0.000	  0.00	  0.00	
     1.19000	    0.000	  0.00	  0.00	
     1.20000	    0.000	  0.00	  0.00	
     1.21000	    0.000	  0.00	  0.00	
     1.22000	    0.000	  0.00	  0.00	
     1.23000	    0.000	  0.00	  0.00	
     1.24000	    0.000	  0.00	  0.00	
     1.25000	    0.000	  0.00	  0.00	
     1.26000	    0.000	  0.00	  0.00	
     1.27000	    0.000	  0.00	  0.00	
     1.28000	    0.000	  0.00	  0.00	
     1.29000	    0.000	  0.00	  0.00	
     1.30000	    0.000	  0.00	  0.00	
     1.31000	    0.000	  0.00	  0.00	
     1.32000	    0.000	  0.00	  0.00	
     1.33000	    0.000	  0.00	  0.00	
     1.34000	    0.000	  0.00	  0.00	
     1.35000	    0.000	  0.00	  0.00	
     1.36000	    0.000	  0.00	  0.00	
     1.37000	    0.000	  0.00	  0.00	
     1.38000	    0.000	  0.00	  0.00	
     1.39000	    0.000	  0.00	  0.00	
     1.40000	    0.000	  0.00	  0.00	
     1.41000	    0.000	  0.00	  0.00	
     1.42000	    0.000	  0.00	  0.00	
     1.43000	    0.000	  0.00	  0.00	
     1.44000	    0.000	  0.00	  0.00	
     1.45000	    0.000	  0.00	  0.00	
     1.46000	    0.000	  0.00	  0.00	
     1.47000	    0.000	  0.00	  0.00	
     1.48000	    0.000	  0.00	  0.00	
     1.49000	    0.000	  0.00	  0.00	
     1.50000	    0.000	  0.00	  0.00	
     1.51000	    0.000	  0.00	  0.00	
     1.52000	    0.000	  0.00	  0.00	
     1.53000	    0.000	  0.00	  0.00	
     1.54000	    0.000	  0.00	  0.00	
     1.55000	    0.000	  0.00	  0.00	
     1.56000	    0.000	  0.00	  0.00	
     1.57000	    0.000	  0.00	  0.00	
     1.58000	    0.000	  0.00	  0.00	
     1.59000	    0.000	  0.00	  0.00	
     1.60000	    0.000	  0.00	  0.00	
     1.61000	    0.000	  0.00	  0.00	
     1.62000	    0.000	  0.00	  0.00	
     1.63000	    0.000	  0.00	  0.00	
     1.64000	    0.000	  0.00	  0.00	
     1.65000	    0.000	  0.00	  0.00	
     1.66000	    0.000	  0.00	  0.00	
     1.67000	    0.000	  0.00	  0.00	
     1.68000	    0.000	  0.00	  0.00	
     1.69000	    0.000	  0.00	  0.00	
     1.70000	    0.000	  0.00	  0.00	
     1.71000	    0.000	  0.00	  0.00	
     1.72000	    0.000	  0.00	  0.00	
     1.73000	    0.000	  0.00	  0.00	
     1.74000	    0.000	  0.00	  0.00	
     1.75000	    0.000	  0.00	  0.00	
     1.76000	    0.000	  0.00	  0.00	
     1.77000	    0.000	  0.00	  0.00	
     1.78000	    0.000	  0.00	  0.00	
     1.79000	    0.000	  0.00	  0.00	
     1.80000	    0.000	  0.00	  0.00	
     1.81000	    0.000	  0.00	  0.00	
     1.82000	    0.000	  0.00	  0.00	
     1.83000	    0.000	  0.00	  0.00	
     1.84000	    0.000	  0.00	  0.00	
     1.85000	    0.000	  0.00	  0.00	
     1.86000	    0.000	  0.00	  0.00	
     1.87000	    0.000	  0.00	  0.00	
     1.88000	    0.000	  0.00	  0.00	
     1.89000	    0.000	  0.00	  0.00	
     1.90000	    0.000	  0.00	  0.00	
     1.91000	    0.000	  0.00	  0.00	
     1.92000	    0.000	  0.00	  0.00	
     1.93000	    0.000	  0.00	  0.00	
     1.94000	    0.000	  0.00	  0.00	
     1.95000	    0.000	  0.00	  0.00	
     1.96000	    0.000	  0.00	  0.00	
     1.97000	    0.000	  0.00	  0.00	
     1.98000	    0.000	  0.00	  0.00	
     1.99000	    0.000	  0.00	  0.00	
     2.00000	    0.000	  0.00	  0.00	
     2.01000	    0.000	  0.00	  0.00	
     2.02000	    0.000	  0.00	  0.00	
     2.03000	    0.000	  0.00	  0.00	
     2.04000	    0.000	  0.00	  0.00	
     2.05000	    0.000	  0.00	  0.00	
     2.06000	    0.000	  0.00	  0.00	
     2.07000	    0.000	  0.00	  0.00	
     2.08000	    0.000	  0.00	  0.00	
     2.09000	    0.000	  0.00	  0.00	
     2.10000	    0.000	  0.00	  0.00	
     2.11000	    0.000	  0.00	  0.00	
     2.12000	    0.000	  0.00	  0.00	
     2.13000	    0.000	  0.00	  0.00	
     2.14000	    0.000	  0.00	  0.00	
     2.15000	    0.000	  0.00	  0.00	
     2.16000	    0.000	  0.00	  0.00	
     2.17000	    0.000	  0.00	  0.00	
     2.18000	    0.000	  0.00	  0.00	
     2.19000	    0.000	  0.00	  0.00	
     2.20000	    0.000	  0.00	  0.00	
     2.21000	    0.000	  0.00	  0.00	
     2.22000	    0.000	  0.00	  0.00	
     2.23000	    0.000	  0.00	  0.00	
     2.24000	    0.000	  0.00	  0.00	
     2.25000	    0.000	  0.00	  0.00	
     2.26000	    0.000	  0.00	  0.00	
     2.27000	    0.000	  0.00	  0.00	
     2.28000	    0.000	  0.00	  0.00	
     2.29000	    0.000	  0.00	  0.00	
     2.30000	    0.000	  0.00	  0.00	
     2.31000	    0.000	  0.00	  0.00	
     2.32000	    0.000	  0.00	  0.00	
     2.33000	    0.000	  0.00	  0.00	
     2.34000	    0.000	  0.00	  0.00	
     2.35000	    0.000	  0.00	  0.00	
     2.36000	    0.000	  0.00	  0.00	
     2.37000	    0.000	  0.00	  0.00	
     2.38000	    0.000	  0.00	  0.00	
     2.39000	    0.000	  0.00	  0.00	
     2.40000	    0.000	  0.00	  0.00	
     2.41000	    0.000	  0.00	  0.00	
     2.42000	    0.000	  0.00	  0.00	
     2.43000	    0.000	  0.00	  0.00	
     2.44000	    0.000	  0.00	  0.00	
     2.45000	    0.000	  0.00	  0.00	
     2.46000	    0.000	  0.00	  0.00	
     2.47000	    0.000	  0.00	  0.00	
     2.48000	    0.000	  0.00	  0.00	
     2.49000	    0.000	  0.00	  0.00	
     2.50000	    0.000	  0.00	  0.00	
     2.51000	    0.000	  0.00	  0.00	
     2.52000	    0.000	  0.00	  0.00	
     2.53000	    0.000	  0.00	  0.00	
     2.54000	    0.000	  0.00	  0.00	
     2.55000	    0.000	  0.00	  0.00	
     2.56000	    0.000	  0.00	  0.00	
     2.57000	    0.000	  0.00	  0.00	
     2.58000	    0.000	  0.00	  0.00	
     2.59000	    0.000	  0.00	  0.00	
     2.60000	    0.000	  0.00	  0.00	
     2.61000	    0.000	  0.00	  0.00	
     2.62000	    0.000	  0.00	  0.00	
     2.63000	    0.000	  0.00	  0.00	
     2.64000	    0.000	  0.00	  0.00	
     2.65000	    0.000	  0.00	  0.00	
     2.66000	    0.000	  0.00	  0.00	
     2.67000	    0.000	  0.00	  0.00	
     2.68000	    0.000	  0.00	  0.00	
     2.69000	    0.000	  0.00	  0.00	
     2.70000	    0.000	  0.00	  0.00	
     2.71000	    0.000	  0.00	  0.00	
     2.72000	    0.000	  0.00	  0.00	
     2.73000	    0.000	  0.00	  0.00	
     2.74000	    0.000	  0.00	  0.00	
     2.75000	    0.000	  0.00	  0.00	
     2.76000	    0.000	  0.00	  0.00	
     2.77000	    0.000	  0.00	  0.00	
     2.78000	    0.000	  0.00	  0.00	
     2.79000	    0.000	  0.00	  0.00	
     2.80000	    0.000	  0.00	  0.00	
     2.81000	    0.000	  0.00	  0.00	
     2.82000	    0.000	  0.00	  0.00	
     2.83000	    0.000	  0.00	  0.00	
     2.84000	    0.000	  0.00	  0.00	
     2.85000	    0.000	  0.00	  0.00	
     2.86000	    0.000	  0.00	  0.00	
     2.87000	    0.000	  0.00	  0.00	
     2.88000	    0.000	  0.00	  0.00	
     2.89000	    0.000	  0.00	  0.00	
     2.90000	    0.000	  0.00	  0.00	
     2.91000	    0.000	  0.00	  0.00	
     2.92000	    0.000	  0.00	  0.00	
     2.93000	    0.000	  0.00	  0.00	
     2.94000	    0.000	  0.00	  0.00	
     2.95000	    0.000	  0.00	  0.00	
     2.96000	    0.000	  0.00	  0.00	
     2.97000	    0.000	  0.00	  0.00	
     2.98000	    2.000	 55.00	 85.00	
     2.99000	    2.000	 55.00	 85.00	
     3.00000	    2.000	 55.00	 85.00	
     3.01000	    2.000	 55.00	 85.00	
     3.02000	    2.000	 55.00	 85.00	
     3.03000	    2.000	 55.00	 85.00	
     3.04000	    2.000	 55.00	 85.00	
     3.05000	    2.000	 55.00	 85.00	
     3.06000	    2.000	 55.00	 85.00	
     3.07000	    2.000	 55.00	 85.00	
     3.08000	    2.000	 55.00	 85.00	
     3.09000	    2.000	 55.00	 85.00	
     3.10000	    2.000	 55.00	 85.00	
     3.11000	    2.000	 55.00	 85.00	
     3.12000	    2.000	 55.00	 85.00	
     3.13000	    2.000	 55.00	 85.00	
     3.14000	    2.000	 55.00	 85.00	
     3.15000	    2.000	 55.00	 85.00	
     3.16000	    2.000	 55.00	 85.00	
     3.17000	    2.000	 55.00	 85.00	
     3.18000	    2.500	 55.00	 85.00	
     3.19000	    2.500	 55.00	 85.00	
     3.20000	    2.500	 55.00	 85.00	
     3.21000	    3.000	 55.00	 85.00	
     3.22000	    3.000	 55.00	 85.00	
     3.23000	    3.000	 55.00	 85.00	
     3.24000	    3.000	 55.00	 85.00	
     3.25000	    3.000	 55.00	 85.00	
     3.26000	    3.000	 55.00	 85.00	
     3.27000	    3.000	 55.00	 85.00	
     3.28000	    2.500	 55.00	 85.00	
     3.29000	    2.500	 55.00	 85.00	
     3.30000	    2.500	 55.00	 85.00	
     3.31000	    2.500	 55.00	 85.00	
     3.32000	    2.000	 55.00	 85.00	
     3.33000	    2.000	 55.00	 85.00	
     3.34000	    2.000	 55.00	 85.00	
     3.35000	    2.000	 55.00	 85.00	
     3.36000	    2.000	 55.00	 85.00	
     3.37000	    2.000	 55.00	 85.00	
     3.38000	    2.000	 55.00	 85.00	
     3.39000	    2.000	 55.00	 85.00	
     3.40000	    2.000	 55.00	 85.00	
     3.41000	    2.000	 55.00	 85.00	
     3.42000	    0.000	  0.00	  0.00	
     3.43000	    0.000	  0.00	  0.00	
     3.44000	    0.000	  0.00	  0.00	
     3.45000	    0.000	  0.00	  0.00	
     3.46000	    0.000	  0.00	  0.00	
     3.47000	    0.000	  0.00	  0.00	
     3.48000	    0.000	  0.00	  0.00	
     3.49000	    0.000	  0.00	  0.00	
     3.50000	    0.000	  0.00	  0.00	
     3.51000	    0.000	  0.00	  0.00	
     3.52000	    0.000	  0.00	  0.00	
     3.53000	    0.000	  0.00	  0.00	
     3.54000	    0.000	  0.00	  0.00	
     3.55000	    0.000	  0.00	  0.00	
     3.56000	    0.000	  0.00	  0.00	
     3.57000	    0.000	  0.00	  0.00	
     3.58000	    0.000	  0.00	  0.00	
     3.59000	    0.000	  0.00	  0.00	
     3.60000	    0.000	  0.00	  0.00	
     3.61000	    0.000	  0.00	  0.00	
     3.62000	    0.000	  0.00	  0.00	
     3.63000	    0.000	  0.00	  0.00	
     3.64000	    0.000	  0.00	  0.00	
     3.65000	    0.000	  0.00	  0.00	
     3.66000	    0.000	  0.00	  0.00	
     3.67000	    0.000	  0.00	  0.00	
     3.68000	    0.000	  0.00	  0.00	
     3.69000	    0.000	  0.00	  0.00	
     3.70000	    0.000	  0.00	  0.00	
     3.71000	    0.000	  0.00	  0.00	
     3.72000	    0.000	  0.00	  0.00	
     3.73000	    0.000	  0.00	  0.00	
     3.74000	    0.000	  0.00	  0.00	
     3.75000	    0.000	  0.00	  0.00	
     3.76000	    0.000	  0.00	  0.00	
     3.77000	    0.000	  0.00	  0.00	
     3.78000	    0.000	  0.00	  0.00	
     3.79000	    0.000	  0.00	  0.00	
     3.80000	    0.000	  0.00	  0.00	
     3.81000	    0.000	  0.00	  0.00	
     3.82000	    0.000	  0.00	  0.00	
     3.83000	    0.000	  0.00	  0.00	
     3.84000	    0.000	  0.00	  0.00	
     3.85000	    0.000	  0.00	  0.00	
     3.86000	    0.000	  0.00	  0.00	
     3.87000	    0.000	  0.00	  0.00	
     3.88000	    0.000	  0.00	  0.00	
     3.89000	    0.000	  0.00	  0.00	
     3.90000	    0.000	  0.00	  0.00	
     3.91000	    0.000	  0.00	  0.00	
     3.92000	    0.000	  0.00	  0.00	
     3.93000	    0.000	  0.00	  0.00	
     3.94000	    0.000	  0.00	  0.00	
     3.95000	    0.000	  0.00	  0.00	
     3.96000	    0.000	  0.00	  0.00	
     3.97000	    0.000	  0.00	  0.00	
     3.98000	    0.000	  0.00	  0.00	
     3.99000	    0.000	  0.00	  0.00	
     4.00000	    0.000	  0.00	  0.00	
     4.01000	    0.000	  0.00	  0.00	
     4.02000	    0.000	  0.00	  0.00	
     4.03000	    0.000	  0.00	  0.00	
     4.04000	    0.000	  0.00	  0.00	
     4.05000	    0.000	  0.00	  0.00	
     4.06000	    0.000	  0.00	  0.00	
     4.07000	    0.000	  0.00	  0.00	
     4.08000	    0.000	  0.00	  0.00	
     4.09000	    0.000	  0.00	  0.00	
     4.10000	    0.000	  0.00	  0.00	
     4.11000	    0.000	  0.00	  0.00	
     4.12000	    0.000	  0.00	  0.00	
     4.13000	    0.000	  0.00	  0.00	
     4.14000	    0.000	  0.00	  0.00	
     4.15000	    0.000	  0.00	  0.00	
     4.16000	    0.000	  0.00	  0.00	
     4.17000	    0.000	  0.00	  0.00	
     4.18000	    0.000	  0.00	  0.00	
     4.19000	    0.000	  0.00	  0.00	
     4.20000	    0.000	  0.00	  0.00	
     4.21000	    0.000	  0.00	  0.00	
     4.22000	    0.000	  0.00	  0.00	
     4.23000	    0.000	  0.00	  0.00	
     4.24000	    0.000	  0.00	  0.00	
     4.25000	    0.000	  0.00	  0.00	
     4.26000	    0.000	  0.00	  0.00	
     4.27000	    0.000	  0.00	  0.00	
     4.28000	    0.000	  0.00	  0.00	
     4.29000	    0.000	  0.00	  0.00	
     4.30000	    0.000	  0.00	  0.00	
     4.31000	    0.000	  0.00	  0.00	
     4.32000	    0.000	  0.00	  0.00	
     4.33000	    0.000	  0.00	  0.00	
     4.34000	    0.000	  0.00	  0.00	
     4.35000	    0.000	  0.00	  0.00	
     4.36000	    0.000	  0.00	  0.00	
     4.37000	    0.000	  0.00	  0.00	
     4.38000	    0.000	  0.00	  0.00	
     4.39000	    0.000	  0.00	  0.00	
     4.40000	    0.000	  0.00	  0.00	
     4.41000	    0.000	  0.00	  0.00	
     4.42000	    0.000	  0.00	  0.00	
     4.43000	    0.000	  0.00	  0.00	
     4.44000	    0.000	  0.00	  0.00	
     4.45000	    0.000	  0.00	  0.00	
     4.46000	    0.000	  0.00	  0.00	
     4.47000	    0.000	  0.00	  0.00	
     4.48000	    0.000	  0.00	  0.00	
     4.49000	    0.000	  0.00	  0.00	
     4.50000	    0.000	  0.00	  0.00	
     4.51000	    0.000	  0.00	  0.00	
     4.52000	    0.000	  0.00	  0.00	
     4.53000	    0.000	  0.00	  0.00	
     4.54000	    0.000	  0.00	  0.00	
     4.55000	    0.000	  0.00	  0.00	
     4.56000	    0.000	  0.00	  0.00	
     4.57000	    0.000	  0.00	  0.00	
     4.58000	    0.000	  0.00	  0.00	
     4.59000	    0.000	  0.00	  0.00	
     4.60000	    0.000	  0.00	  0.00	
     4.61000	    0.000	  0.00	  0.00	
     4.62000	    0.000	  0.00	  0.00	
     4.63000	    0.000	  0.00	  0.00	
     4.64000	    0.000	  0.00	  0.00	
     4.65000	    0.000	  0.00	  0.00	
     4.66000	    0.000	  0.00	  0.00	
     4.67000	    0.000	  0.00	  0.00	
     4.68000	    0.000	  0.00	  0.00	
     4.69000	    0.000	  0.00	  0.00	
     4.70000	    0.000	  0.00	  0.00	
     4.71000	    0.000	  0.00	  0.00	
     4.72000	    0.000	  0.00	  0.00	
     4.73000	    0.000	  0.00	  0.00	
     4.74000	    0.000	  0.00	  0.00	
     4.75000	    0.000	  0.00	  0.00	
     4.76000	    0.000	  0.00	  0.00	
     4.77000	    0.000	  0.00	  0.00	
     4.78000	    0.000	  0.00	  0.00	
     4.79000	    0.000	  0.00	  0.00	
     4.80000	    0.000	  0.00	  0.00	
     4.81000	    0.000	  0.00	  0.00	
     4.82000	    0.000	  0.00	  0.00	
     4.83000	    0.000	  0.00	  0.00	
     4.84000	    0.000	  0.00	  0.00	
     4.85000	    0.000	  0.00	  0.00	
     4.86000	    0.000	  0.00	  0.00	
     4.87000	    0.000	  0.00	  0.00	
     4.88000	    0.000	  0.00	  0.00	
     4.89000	    0.000	  0.00	  0.00	
     4.90000	    0.000	  0.00	  0.00	
     4.91000	    0.000	  0.00	  0.00	
     4.92000	    0.000	  0.00	  0.00	
     4.93000	    0.000	  0.00	  0.00	
     4.94000	    0.000	  0.00	  0.00	
     4.95000	    0.000	  0.00	  0.00	
     4.96000	    0.000	  0.00	  0.00	
     4.97000	    0.000	  0.00	  0.00	
     4.98000	    0.000	  0.00	  0.00	
     4.99000	    0.000	  0.00	  0.00	
     5.00000	    0.000	  0.00	  0.00	
     5.01000	    0.000	  0.00	  0.00	
     5.02000	    0.000	  0.00	  0.00	
     5.03000	    0.000	  0.00	  0.00	
     5.04000	    0.000	  0.00	  0.00	
     5.05000	    0.000	  0.00	  0.00	
     5.06000	    0.000	  0.00	  0.00	
     5.07000	    0.000	  0.00	  0.00	
     5.08000	    0.000	  0.00	  0.00	
     5.09000	    0.000	  0.00	  0.00	
     5.10000	    0.000	  0.00	  0.00	
     5.11000	    0.000	  0.00	  0.00	
     5.12000	    0.000	  0.00	  0.00	
     5.13000	    0.000	  0.00	  0.00	
     5.14000	    0.000	  0.00	  0.00	
     5.15000	    0.000	  0.00	  0.00	
     5.16000	    0.000	  0.00	  0.00	
     5.17000	    0.000	  0.00	  0.00	
